berea_128_20-1-Z/processor0	effPorosity= 0.15369 		K_z= 7.74208e-14 m^2 		FF_z= 44.4452 		DarcyVelocity= 3.29971e-07 m/s 		DelP= 1.09108 Pa 		K: 7.74208e-14 m^2 			K=( 0  0  7.74208e-14 ) Pmax-Pmin: 1.00615 Umax= 9.68803e-05		 effPorosity= V_pore/(L_x*L_y*L_z)= 2.57849e-12/(0.000256*0.000256*0.000256)= 0.15369		 Re=rho*VDarcy*sqrt(K)/mu= 1000*3.29971e-07*sqrt(7.74208e-14 )/0.001)= 9.1813e-08


x=mag(U)/U_D 	 PDF 	 dV/Vdx 	 PDF(log10(x)) 	 dV/Vd(log10(x))
3.28182e-15 3.08811e+09 3.08811e+09 2.33358e-05 2.33358e-05 
4.45726e-15 4.54746e+09 4.54746e+09 4.66717e-05 4.66717e-05 
6.05372e-15 3.34823e+09 3.34823e+09 4.66717e-05 4.66717e-05 
8.22198e-15 0 0 0 0 
1.11668e-14 0 0 0 0 
1.51665e-14 6.68225e+08 6.68225e+08 2.33358e-05 2.33358e-05 
2.05986e-14 4.92004e+08 4.92004e+08 2.33358e-05 2.33358e-05 
2.79765e-14 2.17353e+09 2.17353e+09 0.000140015 0.000140015 
3.79968e-14 1.33362e+09 1.33362e+09 0.000116679 0.000116679 
5.16061e-14 1.96384e+08 1.96384e+08 2.33358e-05 2.33358e-05 
7.00898e-14 2.8919e+08 2.8919e+08 4.66717e-05 4.66717e-05 
9.51939e-14 2.12926e+08 2.12926e+08 4.66717e-05 4.66717e-05 
1.29289e-13 8.62258e+08 8.62258e+08 0.000256694 0.000256694 
1.75597e-13 1.09659e+09 1.09659e+09 0.000443381 0.000443381 
2.38491e-13 6.79917e+08 6.79917e+08 0.000373373 0.000373373 
3.23911e-13 6.25766e+08 6.25766e+08 0.000466717 0.000466717 
4.39926e-13 5.06816e+08 5.06816e+08 0.000513388 0.000513388 
5.97494e-13 3.73161e+08 3.73161e+08 0.000513388 0.000513388 
8.11498e-13 2.62264e+08 2.62264e+08 0.000490052 0.000490052 
1.10215e-12 2.48273e+08 2.48273e+08 0.000630067 0.000630067 
1.49691e-12 1.828e+08 1.828e+08 0.000630067 0.000630067 
2.03306e-12 1.09668e+08 1.09668e+08 0.000513388 0.000513388 
2.76124e-12 1.35802e+08 1.35802e+08 0.000863426 0.000863426 
3.75023e-12 1.2431e+08 1.2431e+08 0.00107345 0.00107345 
5.09345e-12 6.7651e+07 6.7651e+07 0.000793418 0.000793418 
6.91777e-12 6.73906e+07 6.73906e+07 0.00107345 0.00107345 
9.39551e-12 4.74613e+07 4.74613e+07 0.00102678 0.00102678 
1.27607e-11 3.89161e+07 3.89161e+07 0.00114346 0.00114346 
1.73312e-11 3.50857e+07 3.50857e+07 0.00140015 0.00140015 
2.35387e-11 2.58331e+07 2.58331e+07 0.00140015 0.00140015 
3.19696e-11 2.63117e+07 2.63117e+07 0.00193687 0.00193687 
4.34201e-11 1.75056e+07 1.75056e+07 0.00175019 0.00175019 
5.89719e-11 1.5467e+07 1.5467e+07 0.00210022 0.00210022 
8.00938e-11 1.22738e+07 1.22738e+07 0.00226358 0.00226358 
1.08781e-10 1.22978e+07 1.22978e+07 0.00308033 0.00308033 
1.47743e-10 8.36874e+06 8.36874e+06 0.00284697 0.00284697 
2.0066e-10 7.27292e+06 7.27292e+06 0.00336036 0.00336036 
2.72531e-10 5.91275e+06 5.91275e+06 0.0037104 0.0037104 
3.70143e-10 4.57251e+06 4.57251e+06 0.00389708 0.00389708 
5.02717e-10 3.36667e+06 3.36667e+06 0.00389708 0.00389708 
6.82775e-10 2.5382e+06 2.5382e+06 0.00399043 0.00399043 
9.27324e-10 2.03277e+06 2.03277e+06 0.00434046 0.00434046 
1.25946e-09 1.28748e+06 1.28748e+06 0.00373373 0.00373373 
1.71057e-09 924256 924256 0.00364039 0.00364039 
2.32324e-09 793935 793935 0.00424712 0.00424712 
3.15535e-09 552444 552444 0.00401376 0.00401376 
4.28551e-09 394932 394932 0.00389708 0.00389708 
5.82044e-09 294265 294265 0.00394375 0.00394375 
7.90515e-09 242303 242303 0.00441047 0.00441047 
1.07365e-08 199171 199171 0.00492386 0.00492386 
1.4582e-08 142476 142476 0.00478384 0.00478384 
1.98049e-08 112067 112067 0.00511055 0.00511055 
2.68984e-08 79499.3 79499.3 0.00492386 0.00492386 
3.65326e-08 62695.3 62695.3 0.0052739 0.0052739 
4.96175e-08 41463.8 41463.8 0.00473717 0.00473717 
6.7389e-08 34439.3 34439.3 0.0053439 0.0053439 
9.15257e-08 22256.7 22256.7 0.0046905 0.0046905 
1.24307e-07 16631.9 16631.9 0.00476051 0.00476051 
1.68831e-07 11885.6 11885.6 0.00462049 0.00462049 
2.29301e-07 9016.39 9016.39 0.00476051 0.00476051 
3.11429e-07 6215.58 6215.58 0.00445714 0.00445714 
4.22974e-07 5127.53 5127.53 0.00499387 0.00499387 
5.7447e-07 3669.47 3669.47 0.00485385 0.00485385 
7.80228e-07 2961.56 2961.56 0.00532057 0.00532057 
1.05968e-06 2199.68 2199.68 0.00536724 0.00536724 
1.43923e-06 1704.09 1704.09 0.00564727 0.00564727 
1.95472e-06 1254.7 1254.7 0.00564727 0.00564727 
2.65484e-06 1126.14 1126.14 0.00688407 0.00688407 
3.60572e-06 868.508 868.508 0.00721077 0.00721077 
4.89718e-06 589.802 589.802 0.00665071 0.00665071 
6.6512e-06 489.117 489.117 0.0074908 0.0074908 
9.03346e-06 387.055 387.055 0.00805086 0.00805086 
1.2269e-05 289.113 289.113 0.00816754 0.00816754 
1.66634e-05 239.022 239.022 0.00917098 0.00917098 
2.26317e-05 166.584 166.584 0.00868093 0.00868093 
3.07376e-05 150.02 150.02 0.0106178 0.0106178 
4.17469e-05 94.9204 94.9204 0.00912431 0.00912431 
5.66994e-05 85.4391 85.4391 0.0111545 0.0111545 
7.70075e-05 66.9873 66.9873 0.0118779 0.0118779 
0.000104589 52.3256 52.3256 0.0126013 0.0126013 
0.00014205 36.957 36.957 0.012088 0.012088 
0.000192928 30.7304 30.7304 0.0136515 0.0136515 
0.000262029 24.7536 24.7536 0.0149349 0.0149349 
0.00035588 19.1939 19.1939 0.0157283 0.0157283 
0.000483345 15.0967 15.0967 0.0168018 0.0168018 
0.000656465 12.7674 12.7674 0.0192987 0.0192987 
0.000891591 9.03669 9.03669 0.018552 0.018552 
0.00121093 7.88386 7.88386 0.0219823 0.0219823 
0.00164465 5.46585 5.46585 0.0206989 0.0206989 
0.00223371 4.70953 4.70953 0.0242226 0.0242226 
0.00303376 3.65797 3.65797 0.0255527 0.0255527 
0.00412037 2.80399 2.80399 0.0266028 0.0266028 
0.00559616 2.17138 2.17138 0.0279797 0.0279797 
0.00760053 1.74277 1.74277 0.0304999 0.0304999 
0.0103228 1.4216 1.4216 0.0337903 0.0337903 
0.0140201 1.06839 1.06839 0.0344904 0.0344904 
0.0190417 0.837201 0.837201 0.0367073 0.0367073 
0.0258619 0.710469 0.710469 0.0423079 0.0423079 
0.0351248 0.536957 0.536957 0.043428 0.043428 
0.0477055 0.46121 0.46121 0.0506621 0.0506621 
0.0647922 0.363045 0.363045 0.0541625 0.0541625 
0.0879988 0.306231 0.306231 0.06205 0.06205 
0.119517 0.251845 0.251845 0.0693074 0.0693074 
0.162325 0.224576 0.224576 0.083939 0.083939 
0.220465 0.191003 0.191003 0.0969604 0.0969604 
0.299428 0.15874 0.15874 0.109445 0.109445 
0.406675 0.142696 0.142696 0.133621 0.133621 
0.552333 0.123689 0.123689 0.157307 0.157307 
0.750162 0.107674 0.107674 0.185987 0.185987 
1.01885 0.0941795 0.0941795 0.220944 0.220944 
1.38377 0.0808488 0.0808488 0.257604 0.257604 
1.87939 0.0709599 0.0709599 0.307076 0.307076 
2.55253 0.0591393 0.0591393 0.347587 0.347587 
3.46678 0.0493901 0.0493901 0.394259 0.394259 
4.70847 0.0393571 0.0393571 0.426696 0.426696 
6.3949 0.0319115 0.0319115 0.46989 0.46989 
8.68536 0.0242789 0.0242789 0.485549 0.485549 
11.7962 0.0180772 0.0180772 0.491009 0.491009 
16.0212 0.0137597 0.0137597 0.507601 0.507601 
21.7596 0.00918422 0.00918422 0.460159 0.460159 
29.5532 0.00589048 0.00589048 0.400839 0.400839 
40.1382 0.00377906 0.00377906 0.349267 0.349267 
54.5146 0.00222214 0.00222214 0.278933 0.278933 
74.04 0.00102701 0.00102701 0.175089 0.175089 
100.559 0.000382169 0.000382169 0.0884895 0.0884895 
136.576 0.000151007 0.000151007 0.0474884 0.0474884 
185.494 6.78579e-05 6.78579e-05 0.0289831 0.0289831 
251.932 2.42573e-05 2.42573e-05 0.0140715 0.0140715 




x=U_x/U_D 	 PDF 	 dV/Vdx
-188.891 9.26377e-07 9.26377e-07 
-185.542 1.85275e-06 1.85275e-06 
-182.193 0 0 
-178.844 1.85275e-06 1.85275e-06 
-175.495 4.63189e-06 4.63189e-06 
-172.145 9.26377e-07 9.26377e-07 
-168.796 2.77913e-06 2.77913e-06 
-165.447 5.55826e-06 5.55826e-06 
-162.098 4.63189e-06 4.63189e-06 
-158.749 6.48464e-06 6.48464e-06 
-155.4 5.55826e-06 5.55826e-06 
-152.05 7.41102e-06 7.41102e-06 
-148.701 7.41102e-06 7.41102e-06 
-145.352 6.48464e-06 6.48464e-06 
-142.003 5.55826e-06 5.55826e-06 
-138.654 1.11165e-05 1.11165e-05 
-135.305 8.33739e-06 8.33739e-06 
-131.955 1.11165e-05 1.11165e-05 
-128.606 1.85275e-05 1.85275e-05 
-125.257 1.94539e-05 1.94539e-05 
-121.908 2.03803e-05 2.03803e-05 
-118.559 1.85275e-05 1.85275e-05 
-115.21 2.50122e-05 2.50122e-05 
-111.86 2.96441e-05 2.96441e-05 
-108.511 2.22331e-05 2.22331e-05 
-105.162 2.40858e-05 2.40858e-05 
-101.813 2.96441e-05 2.96441e-05 
-98.4638 3.24232e-05 3.24232e-05 
-95.1146 3.14968e-05 3.14968e-05 
-91.7655 4.63189e-05 4.63189e-05 
-88.4163 4.9098e-05 4.9098e-05 
-85.0671 4.9098e-05 4.9098e-05 
-81.7179 5.37299e-05 5.37299e-05 
-78.3688 6.48464e-05 6.48464e-05 
-75.0196 7.1331e-05 7.1331e-05 
-71.6704 8.89322e-05 8.89322e-05 
-68.3213 0.000104681 0.000104681 
-64.9721 0.000115797 0.000115797 
-61.6229 0.000143588 0.000143588 
-58.2738 0.00014822 0.00014822 
-54.9246 0.000186202 0.000186202 
-51.5754 0.000186202 0.000186202 
-48.2263 0.000215846 0.000215846 
-44.8771 0.000293662 0.000293662 
-41.5279 0.000318674 0.000318674 
-38.1788 0.000367772 0.000367772 
-34.8296 0.000441882 0.000441882 
-31.4804 0.000604924 0.000604924 
-28.1312 0.000762408 0.000762408 
-24.7821 0.00103198 0.00103198 
-21.4329 0.00158688 0.00158688 
-18.0837 0.00218903 0.00218903 
-14.7346 0.00307928 0.00307928 
-11.3854 0.00436972 0.00436972 
-8.03623 0.0072174 0.0072174 
-4.68707 0.0121707 0.0121707 
-1.3379 0.0300498 0.0300498 
2.01127 0.157108 0.157108 
5.36044 0.0300897 0.0300897 
8.70961 0.0140207 0.0140207 
12.0588 0.00813081 0.00813081 
15.4079 0.00532852 0.00532852 
18.7571 0.00373423 0.00373423 
22.1063 0.00277821 0.00277821 
25.4555 0.00213067 0.00213067 
28.8046 0.00159893 0.00159893 
32.1538 0.00116446 0.00116446 
35.503 0.000857825 0.000857825 
38.8521 0.000640127 0.000640127 
42.2013 0.000557679 0.000557679 
45.5505 0.000456704 0.000456704 
48.8996 0.000415017 0.000415017 
52.2488 0.000344612 0.000344612 
55.598 0.000300146 0.000300146 
58.9471 0.000258459 0.000258459 
62.2963 0.000209361 0.000209361 
65.6455 0.000247343 0.000247343 
68.9946 0.000163969 0.000163969 
72.3438 0.000176012 0.000176012 
75.693 0.000125061 0.000125061 
79.0422 0.000100975 0.000100975 
82.3913 0.000103754 0.000103754 
85.7405 8.61531e-05 8.61531e-05 
89.0897 6.66992e-05 6.66992e-05 
92.4388 7.04047e-05 7.04047e-05 
95.788 6.02145e-05 6.02145e-05 
99.1372 5.09507e-05 5.09507e-05 
102.486 5.74354e-05 5.74354e-05 
105.835 5.09507e-05 5.09507e-05 
109.185 4.26134e-05 4.26134e-05 
112.534 4.72452e-05 4.72452e-05 
115.883 3.4276e-05 3.4276e-05 
119.232 4.26134e-05 4.26134e-05 
122.581 3.52023e-05 3.52023e-05 
125.931 3.52023e-05 3.52023e-05 
129.28 3.79815e-05 3.79815e-05 
132.629 2.77913e-05 2.77913e-05 
135.978 2.68649e-05 2.68649e-05 
139.327 2.31594e-05 2.31594e-05 
142.676 2.31594e-05 2.31594e-05 
146.026 2.22331e-05 2.22331e-05 
149.375 2.77913e-05 2.77913e-05 
152.724 2.68649e-05 2.68649e-05 
156.073 2.13067e-05 2.13067e-05 
159.422 1.57484e-05 1.57484e-05 
162.771 2.13067e-05 2.13067e-05 
166.121 1.29693e-05 1.29693e-05 
169.47 1.85275e-05 1.85275e-05 
172.819 1.38957e-05 1.38957e-05 
176.168 1.38957e-05 1.38957e-05 
179.517 1.29693e-05 1.29693e-05 
182.866 1.20429e-05 1.20429e-05 
186.216 1.29693e-05 1.29693e-05 
189.565 1.20429e-05 1.20429e-05 
192.914 1.20429e-05 1.20429e-05 
196.263 1.57484e-05 1.57484e-05 
199.612 9.26377e-06 9.26377e-06 
202.961 5.55826e-06 5.55826e-06 
206.311 9.26377e-06 9.26377e-06 
209.66 7.41102e-06 7.41102e-06 
213.009 5.55826e-06 5.55826e-06 
216.358 8.33739e-06 8.33739e-06 
219.707 5.55826e-06 5.55826e-06 
223.056 4.63189e-06 4.63189e-06 
226.406 7.41102e-06 7.41102e-06 
229.755 6.48464e-06 6.48464e-06 
233.104 4.63189e-06 4.63189e-06 
236.453 2.77913e-06 2.77913e-06 




x=U_y/U_D 	 PDF 	 dV/Vdx
-175.426 2.11535e-06 2.11535e-06 
-172.493 3.17302e-06 3.17302e-06 
-169.56 3.17302e-06 3.17302e-06 
-166.626 5.28837e-06 5.28837e-06 
-163.693 6.34605e-06 6.34605e-06 
-160.759 7.40372e-06 7.40372e-06 
-157.826 1.05767e-05 1.05767e-05 
-154.893 6.34605e-06 6.34605e-06 
-151.959 1.16344e-05 1.16344e-05 
-149.026 1.48074e-05 1.48074e-05 
-146.092 9.51907e-06 9.51907e-06 
-143.159 1.79805e-05 1.79805e-05 
-140.226 1.48074e-05 1.48074e-05 
-137.292 1.79805e-05 1.79805e-05 
-134.359 2.00958e-05 2.00958e-05 
-131.425 2.32688e-05 2.32688e-05 
-128.492 2.53842e-05 2.53842e-05 
-125.558 1.79805e-05 1.79805e-05 
-122.625 2.00958e-05 2.00958e-05 
-119.692 3.17302e-05 3.17302e-05 
-116.758 3.49033e-05 3.49033e-05 
-113.825 3.17302e-05 3.17302e-05 
-110.891 2.32688e-05 2.32688e-05 
-107.958 3.91339e-05 3.91339e-05 
-105.025 3.38456e-05 3.38456e-05 
-102.091 4.2307e-05 4.2307e-05 
-99.1577 3.70186e-05 3.70186e-05 
-96.2243 5.92298e-05 5.92298e-05 
-93.2909 4.8653e-05 4.8653e-05 
-90.3575 5.39414e-05 5.39414e-05 
-87.4241 5.07684e-05 5.07684e-05 
-84.4907 6.66335e-05 6.66335e-05 
-81.5573 7.29795e-05 7.29795e-05 
-78.6239 9.30753e-05 9.30753e-05 
-75.6905 0.000100479 0.000100479 
-72.757 0.000126921 0.000126921 
-69.8236 0.000111056 0.000111056 
-66.8902 0.000169228 0.000169228 
-63.9568 0.000193554 0.000193554 
-61.0234 0.000252784 0.000252784 
-58.09 0.000284514 0.000284514 
-55.1566 0.000338456 0.000338456 
-52.2232 0.000356436 0.000356436 
-49.2898 0.000428358 0.000428358 
-46.3563 0.000475953 0.000475953 
-43.4229 0.000524606 0.000524606 
-40.4895 0.000576432 0.000576432 
-37.5561 0.000614509 0.000614509 
-34.6227 0.000707584 0.000707584 
-31.6893 0.000874697 0.000874697 
-28.7559 0.00101219 0.00101219 
-25.8225 0.00133584 0.00133584 
-22.8891 0.00175468 0.00175468 
-19.9556 0.0026114 0.0026114 
-17.0222 0.00332639 0.00332639 
-14.0888 0.00423281 0.00423281 
-11.1554 0.00605307 0.00605307 
-8.222 0.00846457 0.00846457 
-5.28859 0.0129904 0.0129904 
-2.35518 0.0236105 0.0236105 
0.578232 0.157144 0.157144 
3.51164 0.0564936 0.0564936 
6.44505 0.0197447 0.0197447 
9.37846 0.0101812 0.0101812 
12.3119 0.00645922 0.00645922 
15.2453 0.00439464 0.00439464 
18.1787 0.00321427 0.00321427 
21.1121 0.00226131 0.00226131 
24.0455 0.00168488 0.00168488 
26.9789 0.00124488 0.00124488 
29.9123 0.00103969 0.00103969 
32.8458 0.000830274 0.000830274 
35.7792 0.00065047 0.00065047 
38.7126 0.000579606 0.000579606 
41.646 0.000469607 0.000469607 
44.5794 0.000393455 0.000393455 
47.5128 0.000305668 0.000305668 
50.4462 0.000217881 0.000217881 
53.3796 0.000166055 0.000166055 
56.313 0.000155478 0.000155478 
59.2465 0.000114229 0.000114229 
62.1799 0.000105767 0.000105767 
65.1133 8.46139e-05 8.46139e-05 
68.0467 9.096e-05 9.096e-05 
70.9801 5.92298e-05 5.92298e-05 
73.9135 5.39414e-05 5.39414e-05 
76.8469 4.12493e-05 4.12493e-05 
79.7803 3.59609e-05 3.59609e-05 
82.7137 3.17302e-05 3.17302e-05 
85.6472 2.85572e-05 2.85572e-05 
88.5806 3.80763e-05 3.80763e-05 
91.514 2.43265e-05 2.43265e-05 
94.4474 1.79805e-05 1.79805e-05 
97.3808 1.05767e-05 1.05767e-05 
100.314 6.34605e-06 6.34605e-06 
103.248 5.28837e-06 5.28837e-06 
106.181 4.2307e-06 4.2307e-06 
109.114 1.05767e-06 1.05767e-06 
112.048 1.05767e-06 1.05767e-06 
114.981 4.2307e-06 4.2307e-06 
117.915 1.05767e-06 1.05767e-06 
120.848 0 0 
123.781 4.2307e-06 4.2307e-06 
126.715 3.17302e-06 3.17302e-06 
129.648 0 0 
132.582 0 0 
135.515 3.17302e-06 3.17302e-06 
138.449 2.11535e-06 2.11535e-06 
141.382 0 0 
144.315 0 0 
147.249 2.11535e-06 2.11535e-06 
150.182 1.05767e-06 1.05767e-06 
153.116 1.05767e-06 1.05767e-06 
156.049 1.05767e-06 1.05767e-06 
158.982 0 0 
161.916 0 0 
164.849 1.05767e-06 1.05767e-06 
167.783 0 0 
170.716 0 0 
173.649 1.05767e-06 1.05767e-06 
176.583 1.05767e-06 1.05767e-06 
179.516 0 0 
182.45 1.05767e-06 1.05767e-06 
185.383 0 0 
188.317 0 0 
191.25 0 0 
194.183 1.05767e-06 1.05767e-06 
197.117 1.05767e-06 1.05767e-06 




x=U_z/U_D 	 PDF 	 dV/Vdx
-68.4829 1.1148e-06 1.1148e-06 
-65.6998 1.1148e-06 1.1148e-06 
-62.9167 3.34441e-06 3.34441e-06 
-60.1336 0 0 
-57.3505 6.68883e-06 6.68883e-06 
-54.5675 6.68883e-06 6.68883e-06 
-51.7844 5.57402e-06 5.57402e-06 
-49.0013 8.91843e-06 8.91843e-06 
-46.2182 1.89517e-05 1.89517e-05 
-43.4351 1.33777e-05 1.33777e-05 
-40.652 2.56405e-05 2.56405e-05 
-37.869 2.78701e-05 2.78701e-05 
-35.0859 4.0133e-05 4.0133e-05 
-32.3028 3.34441e-05 3.34441e-05 
-29.5197 4.5707e-05 4.5707e-05 
-26.7366 7.13475e-05 7.13475e-05 
-23.9535 7.80363e-05 7.80363e-05 
-21.1705 0.000132662 0.000132662 
-18.3874 0.00017168 0.00017168 
-15.6043 0.000240798 0.000240798 
-12.8212 0.000332212 0.000332212 
-10.0381 0.000567435 0.000567435 
-7.25504 0.000920828 0.000920828 
-4.47195 0.00205124 0.00205124 
-1.68887 0.00785045 0.00785045 
1.09421 0.143952 0.143952 
3.8773 0.0637913 0.0637913 
6.66038 0.0336281 0.0336281 
9.44346 0.021538 0.021538 
12.2265 0.0152461 0.0152461 
15.0096 0.0118247 0.0118247 
17.7927 0.00943793 0.00943793 
20.5758 0.00765648 0.00765648 
23.3589 0.00621169 0.00621169 
26.142 0.00485609 0.00485609 
28.9251 0.00401218 0.00401218 
31.7081 0.00332992 0.00332992 
34.4912 0.00283829 0.00283829 
37.2743 0.00248936 0.00248936 
40.0574 0.00220062 0.00220062 
42.8405 0.00181713 0.00181713 
45.6236 0.00151725 0.00151725 
48.4066 0.00135114 0.00135114 
51.1897 0.00115605 0.00115605 
53.9728 0.000966535 0.000966535 
56.7559 0.000846136 0.000846136 
59.539 0.000537336 0.000537336 
62.3221 0.000498317 0.000498317 
65.1051 0.000448151 0.000448151 
67.8882 0.000379033 0.000379033 
70.6713 0.000353393 0.000353393 
73.4544 0.000296538 0.000296538 
76.2375 0.00028316 0.00028316 
79.0206 0.000222961 0.000222961 
81.8036 0.000224076 0.000224076 
84.5867 0.00017168 0.00017168 
87.3698 0.000206239 0.000206239 
90.1529 0.000153843 0.000153843 
92.936 0.000140465 0.000140465 
95.7191 0.000133777 0.000133777 
98.5021 0.000128202 0.000128202 
101.285 0.000102562 0.000102562 
104.068 0.000133777 0.000133777 
106.851 0.00011594 0.00011594 
109.634 0.000104792 0.000104792 
112.418 0.000100332 0.000100332 
115.201 0.000100332 0.000100332 
117.984 8.36103e-05 8.36103e-05 
120.767 8.36103e-05 8.36103e-05 
123.55 8.80695e-05 8.80695e-05 
126.333 6.68883e-05 6.68883e-05 
129.116 5.57402e-05 5.57402e-05 
131.899 6.35438e-05 6.35438e-05 
134.682 5.46254e-05 5.46254e-05 
137.465 5.79698e-05 5.79698e-05 
140.248 4.12478e-05 4.12478e-05 
143.031 4.34774e-05 4.34774e-05 
145.815 4.0133e-05 4.0133e-05 
148.598 4.12478e-05 4.12478e-05 
151.381 3.90181e-05 3.90181e-05 
154.164 3.56737e-05 3.56737e-05 
156.947 1.89517e-05 1.89517e-05 
159.73 3.45589e-05 3.45589e-05 
162.513 2.78701e-05 2.78701e-05 
165.296 2.11813e-05 2.11813e-05 
168.079 3.00997e-05 3.00997e-05 
170.862 2.56405e-05 2.56405e-05 
173.645 1.67221e-05 1.67221e-05 
176.428 1.89517e-05 1.89517e-05 
179.212 1.89517e-05 1.89517e-05 
181.995 2.56405e-05 2.56405e-05 
184.778 1.33777e-05 1.33777e-05 
187.561 7.80363e-06 7.80363e-06 
190.344 8.91843e-06 8.91843e-06 
193.127 1.00332e-05 1.00332e-05 
195.91 4.45922e-06 4.45922e-06 
198.693 1.00332e-05 1.00332e-05 
201.476 5.57402e-06 5.57402e-06 
204.259 5.57402e-06 5.57402e-06 
207.042 8.91843e-06 8.91843e-06 
209.825 7.80363e-06 7.80363e-06 
212.609 1.22628e-05 1.22628e-05 
215.392 3.34441e-06 3.34441e-06 
218.175 2.22961e-06 2.22961e-06 
220.958 2.22961e-06 2.22961e-06 
223.741 3.34441e-06 3.34441e-06 
226.524 2.22961e-06 2.22961e-06 
229.307 1.1148e-06 1.1148e-06 
232.09 1.1148e-06 1.1148e-06 
234.873 0 0 
237.656 0 0 
240.439 0 0 
243.222 0 0 
246.006 1.1148e-06 1.1148e-06 
248.789 0 0 
251.572 2.22961e-06 2.22961e-06 
254.355 1.1148e-06 1.1148e-06 
257.138 2.22961e-06 2.22961e-06 
259.921 0 0 
262.704 0 0 
265.487 1.1148e-06 1.1148e-06 
268.27 0 0 
271.053 2.22961e-06 2.22961e-06 
273.836 0 0 
276.62 0 0 
279.403 1.1148e-06 1.1148e-06 
282.186 0 0 
284.969 1.1148e-06 1.1148e-06 




x=mag(U)/U_D 	 PDF 	 dV/Vdx
1.14689 0.120909 0.120909 
3.44066 0.0696544 0.0696544 
5.73443 0.0426399 0.0426399 
8.0282 0.0308532 0.0308532 
10.322 0.0232014 0.0232014 
12.6157 0.0187838 0.0187838 
14.9095 0.0161827 0.0161827 
17.2033 0.0133409 0.0133409 
19.4971 0.0110509 0.0110509 
21.7908 0.00927219 0.00927219 
24.0846 0.00798856 0.00798856 
26.3784 0.00689429 0.00689429 
28.6721 0.00609489 0.00609489 
30.9659 0.00540912 0.00540912 
33.2597 0.00478962 0.00478962 
35.5534 0.00438518 0.00438518 
37.8472 0.00411737 0.00411737 
40.141 0.00370752 0.00370752 
42.4348 0.00339101 0.00339101 
44.7285 0.00310155 0.00310155 
47.0223 0.00268224 0.00268224 
49.3161 0.00241848 0.00241848 
51.6098 0.00220477 0.00220477 
53.9036 0.00191801 0.00191801 
56.1974 0.00165966 0.00165966 
58.4912 0.00155957 0.00155957 
60.7849 0.00142025 0.00142025 
63.0787 0.00121736 0.00121736 
65.3725 0.00121871 0.00121871 
67.6662 0.00106992 0.00106992 
69.96 0.000979295 0.000979295 
72.2538 0.000822391 0.000822391 
74.5476 0.000835917 0.000835917 
76.8413 0.000719592 0.000719592 
79.1351 0.000595152 0.000595152 
81.4289 0.000526168 0.000526168 
83.7226 0.000469358 0.000469358 
86.0164 0.00045989 0.00045989 
88.3102 0.000435543 0.000435543 
90.6039 0.000401727 0.000401727 
92.8977 0.000363854 0.000363854 
95.1915 0.00032057 0.00032057 
97.4853 0.000271876 0.000271876 
99.779 0.000300281 0.000300281 
102.073 0.000231298 0.000231298 
104.367 0.000224534 0.000224534 
106.66 0.000231298 0.000231298 
108.954 0.000196129 0.000196129 
111.248 0.000200187 0.000200187 
113.542 0.000192072 0.000192072 
115.835 0.000174488 0.000174488 
118.129 0.000158256 0.000158256 
120.423 0.000183956 0.000183956 
122.717 0.000179898 0.000179898 
125.011 0.00017043 0.00017043 
127.304 0.000142025 0.000142025 
129.598 0.000148788 0.000148788 
131.892 0.000125793 0.000125793 
134.186 0.000124441 0.000124441 
136.479 0.000132556 0.000132556 
138.773 0.000128499 0.000128499 
141.067 0.00011362 0.00011362 
143.361 0.000105504 0.000105504 
145.654 0.000109562 0.000109562 
147.948 8.52149e-05 8.52149e-05 
150.242 0.000104152 0.000104152 
152.536 9.60358e-05 9.60358e-05 
154.83 7.98044e-05 7.98044e-05 
157.123 8.52149e-05 8.52149e-05 
159.417 7.43939e-05 7.43939e-05 
161.711 8.92727e-05 8.92727e-05 
164.005 7.84518e-05 7.84518e-05 
166.298 7.03361e-05 7.03361e-05 
168.592 6.49256e-05 6.49256e-05 
170.886 6.3573e-05 6.3573e-05 
173.18 5.27521e-05 5.27521e-05 
175.473 5.41047e-05 5.41047e-05 
177.767 5.54573e-05 5.54573e-05 
180.061 6.3573e-05 6.3573e-05 
182.355 5.68099e-05 5.68099e-05 
184.649 5.00468e-05 5.00468e-05 
186.942 4.05785e-05 4.05785e-05 
189.236 4.32837e-05 4.32837e-05 
191.53 5.54573e-05 5.54573e-05 
193.824 4.46364e-05 4.46364e-05 
196.117 4.73416e-05 4.73416e-05 
198.411 4.86942e-05 4.86942e-05 
200.705 3.5168e-05 3.5168e-05 
202.999 3.5168e-05 3.5168e-05 
205.292 3.11102e-05 3.11102e-05 
207.586 4.19311e-05 4.19311e-05 
209.88 3.38154e-05 3.38154e-05 
212.174 2.97576e-05 2.97576e-05 
214.468 2.97576e-05 2.97576e-05 
216.761 3.24628e-05 3.24628e-05 
219.055 3.24628e-05 3.24628e-05 
221.349 2.16419e-05 2.16419e-05 
223.643 2.70523e-05 2.70523e-05 
225.936 2.70523e-05 2.70523e-05 
228.23 2.70523e-05 2.70523e-05 
230.524 1.35262e-05 1.35262e-05 
232.818 1.21736e-05 1.21736e-05 
235.112 1.7584e-05 1.7584e-05 
237.405 1.62314e-05 1.62314e-05 
239.699 6.76309e-06 6.76309e-06 
241.993 8.1157e-06 8.1157e-06 
244.287 4.05785e-06 4.05785e-06 
246.58 9.46832e-06 9.46832e-06 
248.874 0 0 
251.168 5.41047e-06 5.41047e-06 
253.462 2.70523e-06 2.70523e-06 
255.755 9.46832e-06 9.46832e-06 
258.049 4.05785e-06 4.05785e-06 
260.343 8.1157e-06 8.1157e-06 
262.637 5.41047e-06 5.41047e-06 
264.931 2.70523e-06 2.70523e-06 
267.224 4.05785e-06 4.05785e-06 
269.518 4.05785e-06 4.05785e-06 
271.812 1.35262e-06 1.35262e-06 
274.106 1.35262e-06 1.35262e-06 
276.399 1.35262e-06 1.35262e-06 
278.693 1.35262e-06 1.35262e-06 
280.987 0 0 
283.281 0 0 
285.574 1.35262e-06 1.35262e-06 
287.868 0 0 
290.162 0 0 
292.456 2.70523e-06 2.70523e-06 


